/*--------------------------------*- C++ -*----------------------------------*\
| =========                 |                                                 |
| \\      /  F ield         | OpenFOAM: The Open Source CFD Toolbox           |
|  \\    /   O peration     | Version:  2306                                  |
|   \\  /    A nd           | Website:  www.openfoam.com                      |
|    \\/     M anipulation  |                                                 |
\*---------------------------------------------------------------------------*/
FoamFile
{
    version     2.0;
    format      ascii;
    arch        "LSB;label=32;scalar=64";
    class       volScalarField;
    location    "0.3/electrolyte";
    object      T;
}
// * * * * * * * * * * * * * * * * * * * * * * * * * * * * * * * * * * * * * //

dimensions      [0 0 0 1 0 0 0];

internalField   nonuniform List<scalar> 
4000
(
1010.295
1010.217
1011.24
1010.29
1010.035
1011.235
1010.212
1012.137
1011.234
1010.285
1009.694
1011.221
1010.03
1012.153
1011.229
1010.207
1013.001
1012.13
1011.228
1010.28
1009.116
1011.19
1009.69
1012.186
1011.214
1010.025
1013.023
1012.145
1011.222
1010.202
1013.846
1012.992
1012.123
1011.222
1010.275
1008.259
1011.129
1009.114
1012.243
1011.182
1009.686
1013.073
1012.178
1011.207
1010.02
1013.871
1013.014
1012.138
1011.216
1010.197
1014.674
1013.836
1012.983
1012.115
1011.215
1007.281
1011.017
1008.264
1012.326
1011.119
1009.112
1013.16
1012.234
1011.175
1009.682
1013.926
1013.064
1012.17
1011.2
1010.016
1014.7
1013.861
1013.005
1012.13
1011.209
1015.485
1014.663
1013.826
1012.974
1012.107
1006.385
1010.839
1007.295
1012.426
1011.006
1008.268
1013.294
1012.315
1011.11
1009.111
1014.023
1013.149
1012.224
1011.167
1009.678
1014.756
1013.916
1013.054
1012.162
1011.193
1015.51
1014.689
1013.85
1012.996
1012.122
1016.275
1015.473
1014.653
1013.816
1012.965
1005.72
1010.631
1006.407
1012.49
1010.827
1007.308
1013.47
1012.411
1010.994
1008.272
1014.176
1013.282
1012.303
1011.1
1009.11
1014.857
1014.012
1013.139
1012.215
1011.159
1015.566
1014.745
1013.905
1013.044
1012.153
1016.3
1015.498
1014.678
1013.84
1012.987
1017.045
1016.263
1015.462
1014.642
1013.806
1005.369
1010.453
1005.748
1012.509
1010.621
1006.429
1013.624
1012.472
1010.815
1007.32
1014.38
1013.453
1012.396
1010.982
1008.276
1015.014
1014.163
1013.269
1012.291
1011.091
1015.666
1014.844
1014
1013.128
1012.205
1016.355
1015.554
1014.734
1013.894
1013.034
1017.069
1016.288
1015.487
1014.666
1013.83
1017.791
1017.032
1016.251
1015.45
1014.63
1005.369
1010.351
1005.4
1012.503
1010.445
1005.775
1013.73
1012.491
1010.61
1006.449
1014.568
1013.604
1012.455
1010.802
1007.332
1015.226
1014.362
1013.436
1012.38
1010.97
1015.823
1015
1014.149
1013.255
1012.279
1016.453
1015.653
1014.832
1013.988
1013.117
1017.122
1016.343
1015.542
1014.722
1013.883
1017.815
1017.056
1016.276
1015.475
1014.655
1018.515
1017.779
1017.02
1016.239
1015.438
1005.72
1010.351
1005.4
1012.493
1010.344
1005.431
1013.793
1012.485
1010.436
1005.802
1014.711
1013.71
1012.473
1010.599
1006.469
1015.427
1014.549
1013.585
1012.437
1010.79
1016.034
1015.209
1014.345
1013.42
1012.365
1016.607
1015.808
1014.986
1014.135
1013.242
1017.218
1016.439
1015.64
1014.819
1013.976
1017.867
1017.11
1016.33
1015.53
1014.71
1018.537
1017.802
1017.044
1016.263
1015.463
1019.214
1018.502
1017.766
1017.007
1016.227
1006.385
1010.453
1005.748
1012.493
1010.344
1005.431
1013.821
1012.475
1010.336
1005.46
1014.802
1013.772
1012.467
1010.427
1005.827
1015.584
1014.69
1013.689
1012.454
1010.588
1016.238
1015.407
1014.529
1013.565
1012.419
1016.815
1016.017
1015.191
1014.328
1013.403
1017.368
1016.592
1015.794
1014.971
1014.121
1017.96
1017.204
1016.426
1015.627
1014.807
1018.589
1017.854
1017.097
1016.317
1015.517
1019.236
1018.524
1017.789
1017.031
1016.251
1019.889
1019.201
1018.489
1017.753
1016.995
1007.281
1010.631
1006.407
1012.503
1010.445
1005.775
1013.821
1012.475
1010.336
1005.46
1014.846
1013.799
1012.458
1010.328
1005.489
1015.686
1014.78
1013.75
1012.449
1010.417
1016.398
1015.562
1014.668
1013.668
1012.436
1017.016
1016.218
1015.387
1014.508
1013.546
1017.571
1016.797
1015.999
1015.174
1014.31
1018.107
1017.353
1016.577
1015.779
1014.957
1018.679
1017.946
1017.191
1016.413
1015.614
1019.286
1018.575
1017.841
1017.084
1016.305
1019.911
1019.223
1018.512
1017.776
1017.018
1020.539
1019.876
1019.188
1018.476
1017.74
1008.259
1010.839
1007.295
1012.509
1010.621
1006.429
1013.793
1012.485
1010.436
1005.802
1014.846
1013.799
1012.458
1010.328
1005.489
1015.737
1014.823
1013.778
1012.44
1010.32
1016.504
1015.664
1014.758
1013.729
1012.43
1017.175
1016.377
1015.541
1014.647
1013.647
1017.769
1016.996
1016.198
1015.367
1014.488
1018.305
1017.554
1016.78
1015.982
1015.156
1018.823
1018.092
1017.338
1016.562
1015.764
1019.375
1018.666
1017.933
1017.177
1016.399
1019.96
1019.273
1018.562
1017.828
1017.071
1020.56
1019.898
1019.21
1018.499
1017.763
1021.164
1020.526
1019.863
1019.175
1018.463
1009.116
1011.017
1008.264
1012.49
1010.827
1007.308
1013.73
1012.491
1010.61
1006.449
1014.802
1013.772
1012.467
1010.427
1005.827
1015.737
1014.823
1013.778
1012.44
1010.32
1016.557
1015.714
1014.801
1013.757
1012.422
1017.282
1016.482
1015.642
1014.736
1013.708
1017.926
1017.155
1016.355
1015.519
1014.625
1018.498
1017.75
1016.977
1016.178
1015.347
1019.017
1018.288
1017.537
1016.762
1015.964
1019.515
1018.808
1018.077
1017.323
1016.547
1020.047
1019.361
1018.652
1017.919
1017.163
1020.609
1019.946
1019.26
1018.549
1017.814
1021.185
1020.547
1019.885
1019.197
1018.485
1021.765
1021.152
1020.513
1019.85
1019.162
1009.694
1011.129
1009.114
1012.426
1011.006
1008.268
1013.624
1012.472
1010.815
1007.32
1014.711
1013.71
1012.473
1010.599
1006.469
1015.686
1014.78
1013.75
1012.449
1010.417
1016.557
1015.714
1014.801
1013.757
1012.422
1017.335
1016.535
1015.692
1014.779
1013.735
1018.031
1017.261
1016.461
1015.62
1014.713
1018.653
1017.906
1017.134
1016.334
1015.498
1019.206
1018.48
1017.73
1016.957
1016.158
1019.705
1019
1018.271
1017.519
1016.745
1020.185
1019.501
1018.793
1018.062
1017.308
1020.694
1020.033
1019.347
1018.638
1017.905
1021.233
1020.595
1019.933
1019.246
1018.535
1021.786
1021.173
1020.534
1019.872
1019.184
1022.341
1021.752
1021.139
1020.5
1019.837
1010.035
1011.19
1009.69
1012.326
1011.119
1009.112
1013.47
1012.411
1010.994
1008.272
1014.568
1013.604
1012.455
1010.802
1007.332
1015.584
1014.69
1013.689
1012.454
1010.588
1016.504
1015.664
1014.758
1013.729
1012.43
1017.335
1016.535
1015.692
1014.779
1013.735
1018.084
1017.314
1016.513
1015.669
1014.756
1018.757
1018.011
1017.24
1016.439
1015.598
1019.357
1018.633
1017.885
1017.113
1016.313
1019.891
1019.188
1018.461
1017.711
1016.938
1020.371
1019.689
1018.983
1018.254
1017.502
1020.83
1020.17
1019.486
1018.778
1018.047
1021.317
1020.681
1020.019
1019.334
1018.624
1021.833
1021.22
1020.582
1019.92
1019.233
1022.362
1021.773
1021.16
1020.522
1019.858
1022.893
1022.329
1021.74
1021.126
1020.487
1010.217
1011.221
1010.03
1012.243
1011.182
1009.686
1013.294
1012.315
1011.11
1009.111
1014.38
1013.453
1012.396
1010.982
1008.276
1015.427
1014.549
1013.585
1012.437
1010.79
1016.398
1015.562
1014.668
1013.668
1012.436
1017.282
1016.482
1015.642
1014.736
1013.708
1018.084
1017.314
1016.513
1015.669
1014.756
1018.809
1018.063
1017.292
1016.491
1015.647
1019.46
1018.737
1017.99
1017.218
1016.417
1020.04
1019.338
1018.613
1017.865
1017.093
1020.553
1019.873
1019.169
1018.442
1017.692
1021.013
1020.355
1019.672
1018.966
1018.237
1021.451
1020.815
1020.155
1019.471
1018.763
1021.916
1021.304
1020.667
1020.005
1019.32
1022.408
1021.82
1021.207
1020.569
1019.907
1022.913
1022.349
1021.761
1021.147
1020.508
1023.42
1022.88
1022.316
1021.727
1021.113
1010.295
1011.235
1010.212
1012.186
1011.214
1010.025
1013.16
1012.234
1011.175
1009.682
1014.176
1013.282
1012.303
1011.1
1009.11
1015.226
1014.362
1013.436
1012.38
1010.97
1016.238
1015.407
1014.529
1013.565
1012.419
1017.175
1016.377
1015.541
1014.647
1013.647
1018.031
1017.261
1016.461
1015.62
1014.713
1018.809
1018.063
1017.292
1016.491
1015.647
1019.511
1018.788
1018.042
1017.271
1016.468
1020.141
1019.44
1018.717
1017.969
1017.197
1020.7
1020.021
1019.319
1018.594
1017.845
1021.192
1020.536
1019.855
1019.151
1018.424
1021.631
1020.997
1020.338
1019.656
1018.949
1022.047
1021.436
1020.801
1020.14
1019.456
1022.49
1021.903
1021.29
1020.653
1019.992
1022.959
1022.395
1021.807
1021.194
1020.556
1023.44
1022.901
1022.337
1021.748
1021.134
1023.922
1023.408
1022.868
1022.304
1021.715
1011.24
1010.29
1012.153
1011.229
1010.207
1013.073
1012.178
1011.207
1010.02
1014.023
1013.149
1012.224
1011.167
1009.678
1015.014
1014.163
1013.269
1012.291
1011.091
1016.034
1015.209
1014.345
1013.42
1012.365
1017.016
1016.218
1015.387
1014.508
1013.546
1017.926
1017.155
1016.355
1015.519
1014.625
1018.757
1018.011
1017.24
1016.439
1015.598
1019.511
1018.788
1018.042
1017.271
1016.468
1020.191
1019.491
1018.768
1018.021
1017.249
1020.799
1020.122
1019.421
1018.696
1017.949
1021.337
1020.682
1020.003
1019.3
1018.574
1021.808
1021.175
1020.518
1019.837
1019.133
1022.226
1021.615
1020.981
1020.322
1019.639
1022.62
1022.033
1021.422
1020.786
1020.126
1023.04
1022.477
1021.889
1021.277
1020.639
1023.485
1022.946
1022.383
1021.794
1021.181
1023.942
1023.428
1022.888
1022.324
1021.735
1024.401
1023.91
1023.395
1022.856
1022.291
1012.137
1011.234
1010.285
1013.023
1012.145
1011.222
1010.202
1013.926
1013.064
1012.17
1011.2
1010.016
1014.857
1014.012
1013.139
1012.215
1011.159
1015.823
1015
1014.149
1013.255
1012.279
1016.815
1016.017
1015.191
1014.328
1013.403
1017.769
1016.996
1016.198
1015.367
1014.488
1018.653
1017.906
1017.134
1016.334
1015.498
1019.46
1018.737
1017.99
1017.218
1016.417
1020.191
1019.491
1018.768
1018.021
1017.249
1020.849
1020.172
1019.471
1018.748
1018
1021.435
1020.781
1020.103
1019.401
1018.676
1021.951
1021.319
1020.664
1019.984
1019.281
1022.401
1021.792
1021.158
1020.501
1019.82
1022.796
1022.21
1021.6
1020.965
1020.306
1023.169
1022.606
1022.019
1021.408
1020.771
1023.565
1023.027
1022.464
1021.876
1021.263
1023.987
1023.473
1022.934
1022.37
1021.781
1024.421
1023.93
1023.415
1022.876
1022.312
1024.855
1024.389
1023.898
1023.383
1022.843
1013.001
1012.13
1011.228
1010.28
1013.871
1013.014
1012.138
1011.216
1010.197
1014.756
1013.916
1013.054
1012.162
1011.193
1015.666
1014.844
1014
1013.128
1012.205
1016.607
1015.808
1014.986
1014.135
1013.242
1017.571
1016.797
1015.999
1015.174
1014.31
1018.498
1017.75
1016.977
1016.178
1015.347
1019.357
1018.633
1017.885
1017.113
1016.313
1020.141
1019.44
1018.717
1017.969
1017.197
1020.849
1020.172
1019.471
1018.748
1018
1021.484
1020.83
1020.153
1019.452
1018.728
1022.048
1021.417
1020.762
1020.084
1019.382
1022.542
1021.934
1021.302
1020.645
1019.965
1022.969
1022.384
1021.775
1021.141
1020.483
1023.343
1022.781
1022.195
1021.584
1020.949
1023.693
1023.155
1022.592
1022.005
1021.393
1024.067
1023.553
1023.014
1022.451
1021.862
1024.465
1023.975
1023.46
1022.921
1022.357
1024.875
1024.409
1023.918
1023.403
1022.863
1025.286
1024.844
1024.377
1023.887
1023.371
1013.846
1012.992
1012.123
1011.222
1010.275
1014.7
1013.861
1013.005
1012.13
1011.209
1015.566
1014.745
1013.905
1013.044
1012.153
1016.453
1015.653
1014.832
1013.988
1013.117
1017.368
1016.592
1015.794
1014.971
1014.121
1018.305
1017.554
1016.78
1015.982
1015.156
1019.206
1018.48
1017.73
1016.957
1016.158
1020.04
1019.338
1018.613
1017.865
1017.093
1020.799
1020.122
1019.421
1018.696
1017.949
1021.484
1020.83
1020.153
1019.452
1018.728
1022.097
1021.466
1020.812
1020.134
1019.432
1022.638
1022.031
1021.399
1020.744
1020.065
1023.109
1022.525
1021.917
1021.284
1020.627
1023.514
1022.953
1022.368
1021.758
1021.124
1023.865
1023.328
1022.766
1022.179
1021.568
1024.193
1023.68
1023.141
1022.579
1021.991
1024.544
1024.054
1023.54
1023.001
1022.437
1024.919
1024.453
1023.963
1023.448
1022.908
1025.305
1024.863
1024.397
1023.906
1023.391
1025.692
1025.274
1024.832
1024.366
1023.875
1014.674
1013.836
1012.983
1012.115
1011.215
1015.51
1014.689
1013.85
1012.996
1012.122
1016.355
1015.554
1014.734
1013.894
1013.034
1017.218
1016.439
1015.64
1014.819
1013.976
1018.107
1017.353
1016.577
1015.779
1014.957
1019.017
1018.288
1017.537
1016.762
1015.964
1019.891
1019.188
1018.461
1017.711
1016.938
1020.7
1020.021
1019.319
1018.594
1017.845
1021.435
1020.781
1020.103
1019.401
1018.676
1022.097
1021.466
1020.812
1020.134
1019.432
1022.686
1022.079
1021.448
1020.793
1020.115
1023.204
1022.621
1022.013
1021.381
1020.725
1023.653
1023.093
1022.508
1021.899
1021.266
1024.036
1023.499
1022.937
1022.352
1021.742
1024.364
1023.851
1023.313
1022.751
1022.164
1024.669
1024.18
1023.666
1023.128
1022.565
1024.997
1024.532
1024.042
1023.527
1022.988
1025.349
1024.907
1024.441
1023.951
1023.436
1025.711
1025.294
1024.852
1024.385
1023.894
1026.075
1025.681
1025.263
1024.82
1024.354
1015.485
1014.663
1013.826
1012.974
1012.107
1016.3
1015.498
1014.678
1013.84
1012.987
1017.122
1016.343
1015.542
1014.722
1013.883
1017.96
1017.204
1016.426
1015.627
1014.807
1018.823
1018.092
1017.338
1016.562
1015.764
1019.705
1019
1018.271
1017.519
1016.745
1020.553
1019.873
1019.169
1018.442
1017.692
1021.337
1020.682
1020.003
1019.3
1018.574
1022.048
1021.417
1020.762
1020.084
1019.382
1022.686
1022.079
1021.448
1020.793
1020.115
1023.252
1022.669
1022.061
1021.43
1020.775
1023.748
1023.188
1022.604
1021.995
1021.363
1024.173
1023.637
1023.076
1022.491
1021.882
1024.533
1024.02
1023.483
1022.921
1022.335
1024.839
1024.35
1023.837
1023.298
1022.736
1025.122
1024.657
1024.167
1023.653
1023.114
1025.427
1024.985
1024.519
1024.029
1023.514
1025.755
1025.337
1024.895
1024.429
1023.938
1026.094
1025.7
1025.282
1024.84
1024.373
1026.434
1026.064
1025.67
1025.251
1024.809
1016.275
1015.473
1014.653
1013.816
1012.965
1017.069
1016.288
1015.487
1014.666
1013.83
1017.867
1017.11
1016.33
1015.53
1014.71
1018.679
1017.946
1017.191
1016.413
1015.614
1019.515
1018.808
1018.077
1017.323
1016.547
1020.371
1019.689
1018.983
1018.254
1017.502
1021.192
1020.536
1019.855
1019.151
1018.424
1021.951
1021.319
1020.664
1019.984
1019.281
1022.638
1022.031
1021.399
1020.744
1020.065
1023.252
1022.669
1022.061
1021.43
1020.775
1023.795
1023.235
1022.652
1022.044
1021.412
1024.267
1023.731
1023.171
1022.587
1021.978
1024.67
1024.157
1023.621
1023.06
1022.475
1025.007
1024.518
1024.005
1023.467
1022.906
1025.291
1024.825
1024.336
1023.822
1023.284
1025.551
1025.109
1024.644
1024.154
1023.639
1025.832
1025.415
1024.973
1024.507
1024.017
1026.137
1025.744
1025.326
1024.884
1024.417
1026.453
1026.083
1025.689
1025.271
1024.828
1026.769
1026.423
1026.053
1025.658
1025.24
1017.045
1016.263
1015.462
1014.642
1013.806
1017.815
1017.056
1016.276
1015.475
1014.655
1018.589
1017.854
1017.097
1016.317
1015.517
1019.375
1018.666
1017.933
1017.177
1016.399
1020.185
1019.501
1018.793
1018.062
1017.308
1021.013
1020.355
1019.672
1018.966
1018.237
1021.808
1021.175
1020.518
1019.837
1019.133
1022.542
1021.934
1021.302
1020.645
1019.965
1023.204
1022.621
1022.013
1021.381
1020.725
1023.795
1023.235
1022.652
1022.044
1021.412
1024.314
1023.778
1023.219
1022.634
1022.026
1024.763
1024.251
1023.715
1023.154
1022.57
1025.143
1024.654
1024.142
1023.605
1023.044
1025.458
1024.992
1024.503
1023.99
1023.452
1025.719
1025.277
1024.811
1024.322
1023.808
1025.956
1025.538
1025.097
1024.631
1024.14
1026.214
1025.821
1025.403
1024.961
1024.495
1026.496
1026.126
1025.732
1025.314
1024.872
1026.788
1026.442
1026.072
1025.678
1025.259
1027.081
1026.758
1026.412
1026.042
1025.647
1017.791
1017.032
1016.251
1015.45
1014.63
1018.537
1017.802
1017.044
1016.263
1015.463
1019.286
1018.575
1017.841
1017.084
1016.305
1020.047
1019.361
1018.652
1017.919
1017.163
1020.83
1020.17
1019.486
1018.778
1018.047
1021.631
1020.997
1020.338
1019.656
1018.949
1022.401
1021.792
1021.158
1020.501
1019.82
1023.109
1022.525
1021.917
1021.284
1020.627
1023.748
1023.188
1022.604
1021.995
1021.363
1024.314
1023.778
1023.219
1022.634
1022.026
1024.81
1024.298
1023.762
1023.202
1022.617
1025.236
1024.748
1024.235
1023.699
1023.138
1025.593
1025.128
1024.639
1024.126
1023.589
1025.885
1025.443
1024.978
1024.488
1023.975
1026.123
1025.705
1025.263
1024.798
1024.308
1026.337
1025.943
1025.526
1025.084
1024.618
1026.573
1026.203
1025.809
1025.391
1024.949
1026.831
1026.485
1026.115
1025.721
1025.302
1027.1
1026.778
1026.431
1026.061
1025.666
1027.369
1027.07
1026.748
1026.401
1026.031
1018.515
1017.779
1017.02
1016.239
1015.438
1019.236
1018.524
1017.789
1017.031
1016.251
1019.96
1019.273
1018.562
1017.828
1017.071
1020.694
1020.033
1019.347
1018.638
1017.905
1021.451
1020.815
1020.155
1019.471
1018.763
1022.226
1021.615
1020.981
1020.322
1019.639
1022.969
1022.384
1021.775
1021.141
1020.483
1023.653
1023.093
1022.508
1021.899
1021.266
1024.267
1023.731
1023.171
1022.587
1021.978
1024.81
1024.298
1023.762
1023.202
1022.617
1025.283
1024.794
1024.282
1023.746
1023.185
1025.685
1025.221
1024.732
1024.219
1023.682
1026.019
1025.578
1025.113
1024.624
1024.111
1026.288
1025.87
1025.429
1024.963
1024.473
1026.504
1026.11
1025.692
1025.25
1024.784
1026.695
1026.325
1025.931
1025.513
1025.071
1026.908
1026.562
1026.192
1025.797
1025.379
1027.143
1026.82
1026.474
1026.104
1025.709
1027.388
1027.089
1026.767
1026.42
1026.05
1027.634
1027.359
1027.06
1026.737
1026.39
1019.214
1018.502
1017.766
1017.007
1016.227
1019.911
1019.223
1018.512
1017.776
1017.018
1020.609
1019.946
1019.26
1018.549
1017.814
1021.317
1020.681
1020.019
1019.334
1018.624
1022.047
1021.436
1020.801
1020.14
1019.456
1022.796
1022.21
1021.6
1020.965
1020.306
1023.514
1022.953
1022.368
1021.758
1021.124
1024.173
1023.637
1023.076
1022.491
1021.882
1024.763
1024.251
1023.715
1023.154
1022.57
1025.283
1024.794
1024.282
1023.746
1023.185
1025.732
1025.267
1024.779
1024.266
1023.73
1026.112
1025.67
1025.205
1024.717
1024.204
1026.423
1026.005
1025.563
1025.098
1024.609
1026.668
1026.274
1025.856
1025.415
1024.949
1026.861
1026.491
1026.096
1025.678
1025.236
1027.03
1026.683
1026.313
1025.919
1025.501
1027.219
1026.897
1026.55
1026.18
1025.786
1027.431
1027.132
1026.81
1026.463
1026.092
1027.653
1027.378
1027.079
1026.756
1026.409
1027.875
1027.624
1027.349
1027.05
1026.727
1019.889
1019.201
1018.489
1017.753
1016.995
1020.56
1019.898
1019.21
1018.499
1017.763
1021.233
1020.595
1019.933
1019.246
1018.535
1021.916
1021.304
1020.667
1020.005
1019.32
1022.62
1022.033
1021.422
1020.786
1020.126
1023.343
1022.781
1022.195
1021.584
1020.949
1024.036
1023.499
1022.937
1022.352
1021.742
1024.67
1024.157
1023.621
1023.06
1022.475
1025.236
1024.748
1024.235
1023.699
1023.138
1025.732
1025.267
1024.779
1024.266
1023.73
1026.158
1025.717
1025.252
1024.763
1024.25
1026.514
1026.097
1025.656
1025.19
1024.701
1026.802
1026.408
1025.99
1025.549
1025.083
1027.025
1026.655
1026.26
1025.842
1025.4
1027.195
1026.848
1026.478
1026.083
1025.665
1027.341
1027.018
1026.672
1026.301
1025.907
1027.507
1027.208
1026.886
1026.539
1026.168
1027.696
1027.421
1027.122
1026.799
1026.452
1027.894
1027.643
1027.368
1027.068
1026.746
1028.093
1027.865
1027.614
1027.338
1027.039
1020.539
1019.876
1019.188
1018.476
1017.74
1021.185
1020.547
1019.885
1019.197
1018.485
1021.833
1021.22
1020.582
1019.92
1019.233
1022.49
1021.903
1021.29
1020.653
1019.992
1023.169
1022.606
1022.019
1021.408
1020.771
1023.865
1023.328
1022.766
1022.179
1021.568
1024.533
1024.02
1023.483
1022.921
1022.335
1025.143
1024.654
1024.142
1023.605
1023.044
1025.685
1025.221
1024.732
1024.219
1023.682
1026.158
1025.717
1025.252
1024.763
1024.25
1026.561
1026.143
1025.702
1025.237
1024.748
1026.894
1026.5
1026.082
1025.641
1025.175
1027.159
1026.788
1026.394
1025.976
1025.534
1027.359
1027.012
1026.641
1026.247
1025.829
1027.506
1027.183
1026.836
1026.465
1026.07
1027.629
1027.33
1027.007
1026.66
1026.289
1027.772
1027.497
1027.198
1026.875
1026.528
1027.937
1027.685
1027.41
1027.111
1026.788
1028.112
1027.884
1027.633
1027.357
1027.058
1028.287
1028.083
1027.855
1027.604
1027.328
1021.164
1020.526
1019.863
1019.175
1018.463
1021.786
1021.173
1020.534
1019.872
1019.184
1022.408
1021.82
1021.207
1020.569
1019.907
1023.04
1022.477
1021.889
1021.277
1020.639
1023.693
1023.155
1022.592
1022.005
1021.393
1024.364
1023.851
1023.313
1022.751
1022.164
1025.007
1024.518
1024.005
1023.467
1022.906
1025.593
1025.128
1024.639
1024.126
1023.589
1026.112
1025.67
1025.205
1024.717
1024.204
1026.561
1026.143
1025.702
1025.237
1024.748
1026.94
1026.546
1026.129
1025.687
1025.222
1027.251
1026.88
1026.486
1026.068
1025.626
1027.493
1027.145
1026.775
1026.38
1025.962
1027.67
1027.346
1026.999
1026.628
1026.233
1027.794
1027.494
1027.17
1026.823
1026.452
1027.893
1027.618
1027.318
1026.995
1026.648
1028.013
1027.761
1027.486
1027.187
1026.863
1028.154
1027.927
1027.675
1027.4
1027.1
1028.306
1028.102
1027.874
1027.622
1027.347
1028.457
1028.277
1028.073
1027.845
1027.594
1021.765
1021.152
1020.513
1019.85
1019.162
1022.362
1021.773
1021.16
1020.522
1019.858
1022.959
1022.395
1021.807
1021.194
1020.556
1023.565
1023.027
1022.464
1021.876
1021.263
1024.193
1023.68
1023.141
1022.579
1021.991
1024.839
1024.35
1023.837
1023.298
1022.736
1025.458
1024.992
1024.503
1023.99
1023.452
1026.019
1025.578
1025.113
1024.624
1024.111
1026.514
1026.097
1025.656
1025.19
1024.701
1026.94
1026.546
1026.129
1025.687
1025.222
1027.297
1026.926
1026.532
1026.114
1025.672
1027.584
1027.237
1026.866
1026.472
1026.053
1027.803
1027.479
1027.132
1026.761
1026.366
1027.957
1027.657
1027.333
1026.986
1026.615
1028.058
1027.782
1027.482
1027.158
1026.811
1028.134
1027.882
1027.606
1027.307
1026.983
1028.23
1028.003
1027.751
1027.475
1027.176
1028.348
1028.144
1027.917
1027.665
1027.389
1028.476
1028.296
1028.092
1027.864
1027.612
1028.604
1028.448
1028.268
1028.063
1027.835
1022.341
1021.752
1021.139
1020.5
1019.837
1022.913
1022.349
1021.761
1021.147
1020.508
1023.485
1022.946
1022.383
1021.794
1021.181
1024.067
1023.553
1023.014
1022.451
1021.862
1024.669
1024.18
1023.666
1023.128
1022.565
1025.291
1024.825
1024.336
1023.822
1023.284
1025.885
1025.443
1024.978
1024.488
1023.975
1026.423
1026.005
1025.563
1025.098
1024.609
1026.894
1026.5
1026.082
1025.641
1025.175
1027.297
1026.926
1026.532
1026.114
1025.672
1027.63
1027.283
1026.912
1026.518
1026.1
1027.895
1027.571
1027.223
1026.852
1026.457
1028.091
1027.79
1027.466
1027.118
1026.747
1028.221
1027.945
1027.644
1027.32
1026.972
1028.299
1028.046
1027.77
1027.469
1027.146
1028.352
1028.123
1027.871
1027.595
1027.295
1028.425
1028.22
1027.992
1027.74
1027.464
1028.519
1028.339
1028.134
1027.906
1027.655
1028.623
1028.466
1028.286
1028.082
1027.854
1028.726
1028.594
1028.438
1028.258
1028.054
1022.893
1022.329
1021.74
1021.126
1020.487
1023.44
1022.901
1022.337
1021.748
1021.134
1023.987
1023.473
1022.934
1022.37
1021.781
1024.544
1024.054
1023.54
1023.001
1022.437
1025.122
1024.657
1024.167
1023.653
1023.114
1025.719
1025.277
1024.811
1024.322
1023.808
1026.288
1025.87
1025.429
1024.963
1024.473
1026.802
1026.408
1025.99
1025.549
1025.083
1027.251
1026.88
1026.486
1026.068
1025.626
1027.63
1027.283
1026.912
1026.518
1026.1
1027.941
1027.617
1027.269
1026.898
1026.503
1028.182
1027.881
1027.557
1027.209
1026.838
1028.355
1028.078
1027.777
1027.453
1027.105
1028.462
1028.209
1027.932
1027.631
1027.307
1028.516
1028.287
1028.034
1027.758
1027.457
1028.546
1028.341
1028.112
1027.86
1027.584
1028.595
1028.415
1028.21
1027.982
1027.73
1028.665
1028.509
1028.329
1028.124
1027.896
1028.745
1028.613
1028.457
1028.277
1028.072
1028.825
1028.717
1028.585
1028.429
1028.248
1023.42
1022.88
1022.316
1021.727
1021.113
1023.942
1023.428
1022.888
1022.324
1021.735
1024.465
1023.975
1023.46
1022.921
1022.357
1024.997
1024.532
1024.042
1023.527
1022.988
1025.551
1025.109
1024.644
1024.154
1023.639
1026.123
1025.705
1025.263
1024.798
1024.308
1026.668
1026.274
1025.856
1025.415
1024.949
1027.159
1026.788
1026.394
1025.976
1025.534
1027.584
1027.237
1026.866
1026.472
1026.053
1027.941
1027.617
1027.269
1026.898
1026.503
1028.228
1027.927
1027.603
1027.255
1026.884
1028.447
1028.169
1027.868
1027.544
1027.196
1028.596
1028.342
1028.065
1027.764
1027.44
1028.68
1028.45
1028.197
1027.92
1027.619
1028.711
1028.505
1028.276
1028.022
1027.746
1028.716
1028.535
1028.33
1028.102
1027.849
1028.742
1028.585
1028.404
1028.2
1027.971
1028.788
1028.656
1028.499
1028.319
1028.114
1028.844
1028.736
1028.604
1028.447
1028.267
1028.898
1028.815
1028.707
1028.576
1028.419
1023.922
1023.408
1022.868
1022.304
1021.715
1024.421
1023.93
1023.415
1022.876
1022.312
1024.919
1024.453
1023.963
1023.448
1022.908
1025.427
1024.985
1024.519
1024.029
1023.514
1025.956
1025.538
1025.097
1024.631
1024.14
1026.504
1026.11
1025.692
1025.25
1024.784
1027.025
1026.655
1026.26
1025.842
1025.4
1027.493
1027.145
1026.775
1026.38
1025.962
1027.895
1027.571
1027.223
1026.852
1026.457
1028.228
1027.927
1027.603
1027.255
1026.884
1028.493
1028.215
1027.914
1027.59
1027.242
1028.688
1028.434
1028.156
1027.855
1027.531
1028.814
1028.583
1028.329
1028.052
1027.751
1028.875
1028.668
1028.438
1028.184
1027.907
1028.881
1028.699
1028.493
1028.264
1028.011
1028.863
1028.706
1028.525
1028.32
1028.091
1028.864
1028.732
1028.575
1028.394
1028.19
1028.887
1028.778
1028.646
1028.49
1028.309
1028.917
1028.834
1028.726
1028.594
1028.438
1028.948
1028.889
1028.806
1028.698
1028.566
1024.401
1023.91
1023.395
1022.856
1022.291
1024.875
1024.409
1023.918
1023.403
1022.863
1025.349
1024.907
1024.441
1023.951
1023.436
1025.832
1025.415
1024.973
1024.507
1024.017
1026.337
1025.943
1025.526
1025.084
1024.618
1026.861
1026.491
1026.096
1025.678
1025.236
1027.359
1027.012
1026.641
1026.247
1025.829
1027.803
1027.479
1027.132
1026.761
1026.366
1028.182
1027.881
1027.557
1027.209
1026.838
1028.493
1028.215
1027.914
1027.59
1027.242
1028.734
1028.48
1028.202
1027.901
1027.576
1028.906
1028.675
1028.421
1028.143
1027.842
1029.009
1028.801
1028.571
1028.317
1028.039
1029.045
1028.863
1028.656
1028.426
1028.172
1029.028
1028.87
1028.688
1028.482
1028.252
1028.986
1028.853
1028.695
1028.514
1028.309
1028.963
1028.854
1028.722
1028.565
1028.384
1028.96
1028.877
1028.769
1028.637
1028.48
1028.967
1028.908
1028.825
1028.717
1028.585
1028.972
1028.939
1028.88
1028.797
1028.689
1024.855
1024.389
1023.898
1023.383
1022.843
1025.305
1024.863
1024.397
1023.906
1023.391
1025.755
1025.337
1024.895
1024.429
1023.938
1026.214
1025.821
1025.403
1024.961
1024.495
1026.695
1026.325
1025.931
1025.513
1025.071
1027.195
1026.848
1026.478
1026.083
1025.665
1027.67
1027.346
1026.999
1026.628
1026.233
1028.091
1027.79
1027.466
1027.118
1026.747
1028.447
1028.169
1027.868
1027.544
1027.196
1028.734
1028.48
1028.202
1027.901
1027.576
1028.952
1028.721
1028.467
1028.189
1027.888
1029.101
1028.893
1028.662
1028.408
1028.13
1029.18
1028.996
1028.789
1028.559
1028.304
1029.193
1029.034
1028.851
1028.644
1028.414
1029.151
1029.017
1028.859
1028.677
1028.471
1029.085
1028.976
1028.843
1028.685
1028.504
1029.037
1028.954
1028.845
1028.712
1028.555
1029.011
1028.951
1028.868
1028.76
1028.627
1028.992
1028.958
1028.899
1028.816
1028.708
1028.963
1028.93
1028.871
1028.788
1025.286
1024.844
1024.377
1023.887
1023.371
1025.711
1025.294
1024.852
1024.385
1023.894
1026.137
1025.744
1025.326
1024.884
1024.417
1026.573
1026.203
1025.809
1025.391
1024.949
1027.03
1026.683
1026.313
1025.919
1025.501
1027.506
1027.183
1026.836
1026.465
1026.07
1027.957
1027.657
1027.333
1026.986
1026.615
1028.355
1028.078
1027.777
1027.453
1027.105
1028.688
1028.434
1028.156
1027.855
1027.531
1028.952
1028.721
1028.467
1028.189
1027.888
1029.147
1028.94
1028.709
1028.454
1028.176
1029.272
1029.088
1028.881
1028.65
1028.395
1029.328
1029.168
1028.984
1028.777
1028.546
1029.316
1029.181
1029.022
1028.839
1028.632
1029.251
1029.14
1029.007
1028.848
1028.666
1029.159
1029.075
1028.966
1028.833
1028.675
1029.088
1029.027
1028.944
1028.835
1028.703
1029.036
1029.001
1028.942
1028.859
1028.75
1028.983
1028.949
1028.89
1028.807
1028.955
1028.921
1028.862
1025.692
1025.274
1024.832
1024.366
1023.875
1026.094
1025.7
1025.282
1024.84
1024.373
1026.496
1026.126
1025.732
1025.314
1024.872
1026.908
1026.562
1026.192
1025.797
1025.379
1027.341
1027.018
1026.672
1026.301
1025.907
1027.794
1027.494
1027.17
1026.823
1026.452
1028.221
1027.945
1027.644
1027.32
1026.972
1028.596
1028.342
1028.065
1027.764
1027.44
1028.906
1028.675
1028.421
1028.143
1027.842
1029.147
1028.94
1028.709
1028.454
1028.176
1029.319
1029.135
1028.927
1028.696
1028.441
1029.421
1029.26
1029.076
1028.868
1028.638
1029.451
1029.316
1029.156
1028.972
1028.765
1029.416
1029.305
1029.17
1029.01
1028.828
1029.325
1029.24
1029.13
1028.996
1028.837
1029.211
1029.149
1029.065
1028.956
1028.822
1029.114
1029.078
1029.018
1028.934
1028.826
1029.027
1028.992
1028.933
1028.849
1028.974
1028.94
1028.881
1028.946
1028.912
1026.075
1025.681
1025.263
1024.82
1024.354
1026.453
1026.083
1025.689
1025.271
1024.828
1026.831
1026.485
1026.115
1025.721
1025.302
1027.219
1026.897
1026.55
1026.18
1025.786
1027.629
1027.33
1027.007
1026.66
1026.289
1028.058
1027.782
1027.482
1027.158
1026.811
1028.462
1028.209
1027.932
1027.631
1027.307
1028.814
1028.583
1028.329
1028.052
1027.751
1029.101
1028.893
1028.662
1028.408
1028.13
1029.319
1029.135
1028.927
1028.696
1028.441
1029.467
1029.307
1029.123
1028.915
1028.684
1029.544
1029.409
1029.248
1029.064
1028.856
1029.552
1029.44
1029.304
1029.144
1028.96
1029.491
1029.405
1029.294
1029.159
1028.999
1029.378
1029.315
1029.23
1029.119
1028.985
1029.239
1029.201
1029.139
1029.055
1028.945
1029.105
1029.069
1029.009
1028.925
1029.018
1028.983
1028.924
1028.965
1028.931
1028.937
1026.434
1026.064
1025.67
1025.251
1024.809
1026.788
1026.442
1026.072
1025.678
1025.259
1027.143
1026.82
1026.474
1026.104
1025.709
1027.507
1027.208
1026.886
1026.539
1026.168
1027.893
1027.618
1027.318
1026.995
1026.648
1028.299
1028.046
1027.77
1027.469
1027.146
1028.68
1028.45
1028.197
1027.92
1027.619
1029.009
1028.801
1028.571
1028.317
1028.039
1029.272
1029.088
1028.881
1028.65
1028.395
1029.467
1029.307
1029.123
1028.915
1028.684
1029.591
1029.455
1029.294
1029.11
1028.902
1029.646
1029.533
1029.397
1029.236
1029.052
1029.627
1029.541
1029.428
1029.293
1029.132
1029.545
1029.48
1029.394
1029.282
1029.147
1029.41
1029.367
1029.304
1029.219
1029.108
1029.23
1029.191
1029.13
1029.045
1029.096
1029.06
1028.999
1029.009
1028.974
1028.956
1026.769
1026.423
1026.053
1025.658
1025.24
1027.1
1026.778
1026.431
1026.061
1025.666
1027.431
1027.132
1026.81
1026.463
1026.092
1027.772
1027.497
1027.198
1026.875
1026.528
1028.134
1027.882
1027.606
1027.307
1026.983
1028.516
1028.287
1028.034
1027.758
1027.457
1028.875
1028.668
1028.438
1028.184
1027.907
1029.18
1028.996
1028.789
1028.559
1028.304
1029.421
1029.26
1029.076
1028.868
1028.638
1029.591
1029.455
1029.294
1029.11
1028.902
1029.693
1029.58
1029.443
1029.282
1029.098
1029.721
1029.634
1029.521
1029.385
1029.224
1029.682
1029.616
1029.529
1029.417
1029.281
1029.581
1029.534
1029.469
1029.383
1029.271
1029.399
1029.357
1029.294
1029.209
1029.22
1029.181
1029.12
1029.086
1029.05
1029
1027.081
1026.758
1026.412
1026.042
1025.647
1027.388
1027.089
1026.767
1026.42
1026.05
1027.696
1027.421
1027.122
1026.799
1026.452
1028.013
1027.761
1027.486
1027.187
1026.863
1028.352
1028.123
1027.871
1027.595
1027.295
1028.711
1028.505
1028.276
1028.022
1027.746
1029.045
1028.863
1028.656
1028.426
1028.172
1029.328
1029.168
1028.984
1028.777
1028.546
1029.544
1029.409
1029.248
1029.064
1028.856
1029.693
1029.58
1029.443
1029.282
1029.098
1029.769
1029.681
1029.568
1029.432
1029.271
1029.777
1029.71
1029.622
1029.509
1029.373
1029.721
1029.671
1029.605
1029.518
1029.405
1029.57
1029.523
1029.458
1029.372
1029.389
1029.347
1029.283
1029.21
1029.172
1029.077
1027.369
1027.07
1026.748
1026.401
1026.031
1027.653
1027.378
1027.079
1026.756
1026.409
1027.937
1027.685
1027.41
1027.111
1026.788
1028.23
1028.003
1027.751
1027.475
1027.176
1028.546
1028.341
1028.112
1027.86
1027.584
1028.881
1028.699
1028.493
1028.264
1028.011
1029.193
1029.034
1028.851
1028.644
1028.414
1029.451
1029.316
1029.156
1028.972
1028.765
1029.646
1029.533
1029.397
1029.236
1029.052
1029.769
1029.681
1029.568
1029.432
1029.271
1029.825
1029.757
1029.669
1029.556
1029.42
1029.819
1029.765
1029.698
1029.611
1029.498
1029.71
1029.66
1029.593
1029.507
1029.559
1029.512
1029.447
1029.379
1029.336
1029.201
1027.634
1027.359
1027.06
1026.737
1026.39
1027.894
1027.643
1027.368
1027.068
1026.746
1028.154
1027.927
1027.675
1027.4
1027.1
1028.425
1028.22
1027.992
1027.74
1027.464
1028.716
1028.535
1028.33
1028.102
1027.849
1029.028
1028.87
1028.688
1028.482
1028.252
1029.316
1029.181
1029.022
1028.839
1028.632
1029.552
1029.44
1029.304
1029.144
1028.96
1029.721
1029.634
1029.521
1029.385
1029.224
1029.825
1029.757
1029.669
1029.556
1029.42
1029.868
1029.813
1029.745
1029.658
1029.545
1029.807
1029.754
1029.687
1029.599
1029.699
1029.648
1029.582
1029.548
1029.501
1029.368
1027.875
1027.624
1027.349
1027.05
1026.727
1028.112
1027.884
1027.633
1027.357
1027.058
1028.348
1028.144
1027.917
1027.665
1027.389
1028.595
1028.415
1028.21
1027.982
1027.73
1028.863
1028.706
1028.525
1028.32
1028.091
1029.151
1029.017
1028.859
1028.677
1028.471
1029.416
1029.305
1029.17
1029.01
1028.828
1029.627
1029.541
1029.428
1029.293
1029.132
1029.777
1029.71
1029.622
1029.509
1029.373
1029.868
1029.813
1029.745
1029.658
1029.545
1029.856
1029.802
1029.734
1029.646
1029.796
1029.743
1029.676
1029.688
1029.638
1029.537
1028.093
1027.865
1027.614
1027.338
1027.039
1028.306
1028.102
1027.874
1027.622
1027.347
1028.519
1028.339
1028.134
1027.906
1027.655
1028.742
1028.585
1028.404
1028.2
1027.971
1028.986
1028.853
1028.695
1028.514
1028.309
1029.251
1029.14
1029.007
1028.848
1028.666
1029.491
1029.405
1029.294
1029.159
1028.999
1029.682
1029.616
1029.529
1029.417
1029.281
1029.819
1029.765
1029.698
1029.611
1029.498
1029.856
1029.802
1029.734
1029.646
1029.845
1029.79
1029.723
1029.784
1029.732
1029.677
1028.287
1028.083
1027.855
1027.604
1027.328
1028.476
1028.296
1028.092
1027.864
1027.612
1028.665
1028.509
1028.329
1028.124
1027.896
1028.864
1028.732
1028.575
1028.394
1028.19
1029.085
1028.976
1028.843
1028.685
1028.504
1029.325
1029.24
1029.13
1028.996
1028.837
1029.545
1029.48
1029.394
1029.282
1029.147
1029.721
1029.671
1029.605
1029.518
1029.405
1029.807
1029.754
1029.687
1029.599
1029.845
1029.79
1029.723
1029.834
1029.779
1029.773
1028.457
1028.277
1028.073
1027.845
1027.594
1028.623
1028.466
1028.286
1028.082
1027.854
1028.788
1028.656
1028.499
1028.319
1028.114
1028.963
1028.854
1028.722
1028.565
1028.384
1029.159
1029.075
1028.966
1028.833
1028.675
1029.378
1029.315
1029.23
1029.119
1028.985
1029.581
1029.534
1029.469
1029.383
1029.271
1029.71
1029.66
1029.593
1029.507
1029.796
1029.743
1029.676
1029.834
1029.779
1029.822
1028.604
1028.448
1028.268
1028.063
1027.835
1028.745
1028.613
1028.457
1028.277
1028.072
1028.887
1028.778
1028.646
1028.49
1028.309
1029.037
1028.954
1028.845
1028.712
1028.555
1029.211
1029.149
1029.065
1028.956
1028.822
1029.41
1029.367
1029.304
1029.219
1029.108
1029.57
1029.523
1029.458
1029.372
1029.699
1029.648
1029.582
1029.784
1029.732
1029.822
1028.726
1028.594
1028.438
1028.258
1028.054
1028.844
1028.736
1028.604
1028.447
1028.267
1028.96
1028.877
1028.769
1028.637
1028.48
1029.088
1029.027
1028.944
1028.835
1028.703
1029.239
1029.201
1029.139
1029.055
1028.945
1029.399
1029.357
1029.294
1029.209
1029.559
1029.512
1029.447
1029.688
1029.638
1029.773
1028.825
1028.717
1028.585
1028.429
1028.248
1028.917
1028.834
1028.726
1028.594
1028.438
1029.011
1028.951
1028.868
1028.76
1028.627
1029.114
1029.078
1029.018
1028.934
1028.826
1029.23
1029.191
1029.13
1029.045
1029.389
1029.347
1029.283
1029.548
1029.501
1029.677
1028.898
1028.815
1028.707
1028.576
1028.419
1028.967
1028.908
1028.825
1028.717
1028.585
1029.036
1029.001
1028.942
1028.859
1028.75
1029.105
1029.069
1029.009
1028.925
1029.22
1029.181
1029.12
1029.379
1029.336
1029.537
1028.948
1028.889
1028.806
1028.698
1028.566
1028.992
1028.958
1028.899
1028.816
1028.708
1029.027
1028.992
1028.933
1028.849
1029.096
1029.06
1028.999
1029.21
1029.172
1029.368
1028.972
1028.939
1028.88
1028.797
1028.689
1028.983
1028.949
1028.89
1028.807
1029.018
1028.983
1028.924
1029.086
1029.05
1029.201
1028.963
1028.93
1028.871
1028.788
1028.974
1028.94
1028.881
1029.009
1028.974
1029.077
1028.955
1028.921
1028.862
1028.965
1028.931
1029
1028.946
1028.912
1028.956
1028.937
)
;

boundaryField
{
    electrolyteSides
    {
        type            zeroGradient;
    }
    electrolyte_to_fuel
    {
        type            zeroGradient;
    }
    electrolyte_to_air
    {
        type            zeroGradient;
    }
}


// ************************************************************************* //
